% Swarm Virtual Observatory Model
% VO v0108 computed by Magnus Hammer, DTU; prepped by Will Brown, BGS
%  -Swarm Level 1b MAG-L version 0505, from 2013-11-29 to 2018-08-31, 15 sec data sampling rate
%  -Gross outliers deviating more than 500nT from CHAOS-6-x7 removed
%  -Dark time (max 10deg above horizon)
%  -Geomagnetically quiet conditions (kp<30,dDst<3,Em<0.8,Bz>0nT,abs(By)<10nT)
%  -Estimates of CHAOS-6-x7 crustal field for SH degree n=20-120 (static part) removed
%  -300 globally distributed VOs using an equal area grid (Leopardi 2006)
%  -VO data search range is 700km around each VO location
%  -VO data are collected for 4 months at a time
%  -VO altitudes are 490km during Swarm period
% time  |  theta  |     phi     |    r     |        Br             Bt            Bp     |
%       |  [deg]  |    [deg]    |   [km]   |                 NEC frame [nT]             |
2014.00	   0.00000	   0.00000	 6861.20	-46060.92575	 -1172.47731	 99999.00000
2014.00	  12.70827	  25.71429	 6861.20	-44404.05732	 -5938.36410	  1036.52907
2014.00	  12.70827	  77.14286	 6861.20	-46594.60009	 -3621.08464	  1711.53768
2014.00	  12.70827	 128.57143	 6861.20	-47162.03743	 -3766.89618	  -487.36339
2014.00	  12.70827	 180.00000	 6861.20	-46283.70058	 -4933.58204	   583.78257
2014.00	  12.70827	-128.57143	 6861.20	-46421.29615	 -2649.64960	  1138.64702
2014.00	  12.70827	 -77.14286	 6861.20	-45822.69096	 -2181.37240	 -1844.42192
2014.00	  12.70827	 -25.71429	 6861.20	-44210.09408	 -5273.69420	 -2130.10994
2014.00	  24.74016	   3.95604	 6861.20	-40993.29409	-10479.27485	  -326.90657
2014.00	  24.74016	  31.64835	 6861.20	-42163.13153	-10021.89549	  1742.96648
2014.00	  24.74016	  59.34066	 6861.20	-44673.55257	 -8875.40777	  2574.78757
2014.00	  24.74016	  87.03297	 6861.20	-47141.50798	 -7873.73901	  1303.04351
2014.00	  24.74016	 114.72527	 6861.20	-47358.11764	 -8363.22665	 -1192.51870
2014.00	  24.74016	 142.41758	 6861.20	-45264.04477	-10284.90543	 -1969.00270
2014.00	  24.74016	 170.10989	 6861.20	-43452.93359	-11436.18444	   -65.30970
2014.00	  24.74016	-162.19780	 6861.20	-43611.45202	-10429.55120	  2358.27186
2014.00	  24.74016	-134.50549	 6861.20	-45217.64036	 -7889.99205	  2987.49773
2014.00	  24.74016	-106.81319	 6861.20	-46473.85076	 -5669.89529	  1033.98072
2014.00	  24.74016	 -79.12088	 6861.20	-45868.12497	 -5585.86502	 -2095.94214
2014.00	  24.74016	 -51.42857	 6861.20	-43617.32084	 -7624.78836	 -3691.01521
2014.00	  24.74016	 -23.73626	 6861.20	-41538.94760	 -9726.17117	 -2649.20037
2014.00	  36.47600	  -2.96703	 6861.20	-36730.69746	-14915.03730	  -815.17275
2014.00	  36.47600	  17.03297	99999.00	 99999.00000	 99999.00000	 99999.00000
2014.00	  36.47600	  37.03297	 6861.20	-38952.32434	-14433.22027	  1956.24444
2014.00	  36.47600	  57.03297	 6861.20	-41219.06331	-14148.49176	  2411.12693
2014.00	  36.47600	  77.03297	 6861.20	-43683.48865	-13994.11968	  1817.76954
2014.00	  36.47600	  97.03297	 6861.20	-45082.44988	-14085.10374	    44.45989
2014.00	  36.47600	 117.03297	 6861.20	-44188.99706	-14753.23739	 -2091.66212
2014.00	  36.47600	 137.03297	 6861.20	-41260.95575	-15952.72539	 -2860.39906
2014.00	  36.47600	 157.03297	 6861.20	-38305.89433	-16809.55170	 -1523.37910
2014.00	  36.47600	 177.03297	 6861.20	-37015.91991	-16660.55939	   898.58506
2014.00	  36.47600	-162.96703	 6861.20	-37770.68214	-15576.95135	  3076.80201
2014.00	  36.47600	-142.96703	 6861.20	-40039.27993	-13884.41897	  4149.14042
2014.00	  36.47600	-122.96703	 6861.20	-42734.95573	-11962.76700	  3570.23983
2014.00	  36.47600	-102.96703	 6861.20	-44495.20692	-10451.65369	  1332.55873
2014.00	  36.47600	 -82.96703	 6861.20	-44267.27498	-10170.01846	 -1774.56352
2014.00	  36.47600	 -62.96703	 6861.20	-41981.10156	-11381.54308	 -4032.87096
2014.00	  36.47600	 -42.96703	 6861.20	-39117.65564	-13169.70971	 -4213.73574
2014.00	  36.47600	 -22.96703	 6861.20	-37213.21680	-14470.62459	 -2768.87461
2014.00	  48.17388	  -6.88008	 6861.20	-30170.98717	-19665.13116	 -1101.89725
2014.00	  48.17388	   8.77210	99999.00	 99999.00000	 99999.00000	 99999.00000
2014.00	  48.17388	  24.42427	 6861.20	-32040.47692	-19536.18402	  1252.49913
2014.00	  48.17388	  40.07645	 6861.20	-33546.85466	-19434.82574	  1758.38326
2014.00	  48.17388	  55.72862	 6861.20	-35256.34694	-19648.08957	  1800.57256
2014.00	  48.17388	  71.38079	 6861.20	-36951.15382	-20153.01800	  1449.51529
2014.00	  48.17388	  87.03297	 6861.20	-38296.20483	-20638.47630	   609.71100
2014.00	  48.17388	 102.68514	 6861.20	-38626.98556	-20938.92254	  -801.08368
2014.00	  48.17388	 118.33731	 6861.20	-37241.78191	-21170.95199	 -2325.54659
2014.00	  48.17388	 133.98949	 6861.20	-34331.31800	-21375.28873	 -2885.01909
2014.00	  48.17388	 149.64166	 6861.20	-31291.85127	-21269.71316	 -1933.09061
2014.00	  48.17388	 165.29384	 6861.20	-29424.45673	-20667.19749	   -41.96368
2014.00	  48.17388	-179.05399	 6861.20	-29150.04634	-19736.50651	  1919.59669
2014.00	  48.17388	-163.40182	 6861.20	-30234.93913	-18806.97519	  3426.74548
2014.00	  48.17388	-147.74964	 6861.20	-32329.99073	-17977.30493	  4359.14893
2014.00	  48.17388	-132.09747	 6861.20	-35047.59885	-17106.88241	  4494.57082
2014.00	  48.17388	-116.44529	 6861.20	-37732.38812	-16143.36049	  3570.13650
2014.00	  48.17388	-100.79312	 6861.20	-39572.60542	-15288.30190	  1508.81007
2014.00	  48.17388	 -85.14095	 6861.20	-39679.28225	-14977.37341	 -1347.62648
2014.00	  48.17388	 -69.48877	 6861.20	-37719.94548	-15528.20834	 -3866.61051
2014.00	  48.17388	 -53.83660	 6861.20	-34696.18040	-16751.85254	 -4915.86618
2014.00	  48.17388	 -38.18442	 6861.20	-32014.32217	-18127.38956	 -4383.39053
2014.00	  48.17388	 -22.53225	 6861.20	-30460.38004	-19179.43795	 -2872.41339
2014.00	  60.04178	  -8.90906	 6861.20	-20411.99728	-23822.02539	 -1524.14552
2014.00	  60.04178	   4.42427	 6861.20	-21060.66013	-24219.98400	  -122.21302
2014.00	  60.04178	  17.75760	99999.00	 99999.00000	 99999.00000	 99999.00000
2014.00	  60.04178	  31.09094	 6861.20	-23617.39619	-24403.77821	  1375.17775
2014.00	  60.04178	  44.42427	 6861.20	-25138.29218	-24525.73797	  1347.03991
2014.00	  60.04178	  57.75760	 6861.20	-26306.63789	-25045.78256	   950.93957
2014.00	  60.04178	  71.09094	 6861.20	-27150.54548	-25843.60214	   569.36863
2014.00	  60.04178	  84.42427	 6861.20	-27807.37365	-26593.37591	   164.42630
2014.00	  60.04178	  97.75760	 6861.20	-28098.66981	-26992.72513	  -464.24005
2014.00	  60.04178	 111.09094	 6861.20	-27555.57232	-26910.82326	 -1390.58612
2014.00	  60.04178	 124.42427	 6861.20	-25804.89373	-26467.28181	 -2127.91986
2014.00	  60.04178	 137.75760	 6861.20	-23378.48761	-25707.11181	 -1914.94608
2014.00	  60.04178	 151.09094	 6861.20	-21396.20213	-24615.36467	  -708.65046
2014.00	  60.04178	 164.42427	 6861.20	-20550.95735	-23323.32672	   922.20199
2014.00	  60.04178	 177.75760	 6861.20	-20884.98930	-22063.79624	  2361.44366
2014.00	  60.04178	-168.90906	 6861.20	-21970.15140	-21124.49479	  3310.83236
2014.00	  60.04178	-155.57573	 6861.20	-23442.93250	-20613.62069	  3932.95817
2014.00	  60.04178	-142.24240	 6861.20	-25327.28095	-20355.14343	  4340.81952
2014.00	  60.04178	-128.90906	 6861.20	-27595.78290	-20131.16960	  4315.66266
2014.00	  60.04178	-115.57573	 6861.20	-29924.84799	-19811.43552	  3614.71700
2014.00	  60.04178	-102.24240	 6861.20	-31780.69716	-19374.27567	  2042.12089
2014.00	  60.04178	 -88.90906	 6861.20	-32404.50590	-18977.25658	  -363.04835
2014.00	  60.04178	 -75.57573	 6861.20	-31228.86401	-18906.92846	 -2996.84074
2014.00	  60.04178	 -62.24240	 6861.20	-28526.12566	-19407.34565	 -4891.75872
2014.00	  60.04178	 -48.90906	 6861.20	-25286.60027	-20486.86485	 -5490.30798
2014.00	  60.04178	 -35.57573	 6861.20	-22514.64050	-21841.09388	 -4808.12103
2014.00	  60.04178	 -22.24240	 6861.20	-20817.44770	-23043.67666	 -3289.79141
2014.00	  72.03865	  -9.57573	 6861.20	 -7878.15897	-25635.17427	 -2202.24002
2014.00	  72.03865	   2.42427	 6861.20	 -8125.36477	-26406.18768	  -767.61264
2014.00	  72.03865	  14.42427	99999.00	 99999.00000	 99999.00000	 99999.00000
2014.00	  72.03865	  26.42427	 6861.20	-10262.96318	-27354.92000	   992.60443
2014.00	  72.03865	  38.42427	 6861.20	-11925.37824	-27683.07166	  1056.96287
2014.00	  72.03865	  50.42427	 6861.20	-13171.03439	-28245.52413	   476.72030
2014.00	  72.03865	  62.42427	 6861.20	-13704.11948	-29102.65299	  -128.40675
2014.00	  72.03865	  74.42427	 6861.20	-13864.23316	-30074.72706	  -439.14224
2014.00	  72.03865	  86.42427	 6861.20	-13880.52021	-30885.77065	  -513.68197
2014.00	  72.03865	  98.42427	 6861.20	-13884.17459	-31202.73705	  -514.48821
2014.00	  72.03865	 110.42427	 6861.20	-13715.52054	-30886.09431	  -765.25876
2014.00	  72.03865	 122.42427	 6861.20	-12882.35044	-30100.48783	 -1079.07547
2014.00	  72.03865	 134.42427	 6861.20	-11604.57458	-28978.24654	  -772.44293
2014.00	  72.03865	 146.42427	 6861.20	-10713.68017	-27598.82316	   250.99733
2014.00	  72.03865	 158.42427	 6861.20	-10666.40024	-26144.76900	  1581.26376
2014.00	  72.03865	 170.42427	 6861.20	-11513.29114	-24800.46281	  2769.20470
2014.00	  72.03865	-177.57573	 6861.20	-12892.11687	-23735.35382	  3459.17642
2014.00	  72.03865	-165.57573	 6861.20	-14252.57976	-23053.37990	  3712.58342
2014.00	  72.03865	-153.57573	 6861.20	-15475.39522	-22696.42006	  3891.12003
2014.00	  72.03865	-141.57573	 6861.20	-16845.44113	-22543.06824	  4071.23317
2014.00	  72.03865	-129.57573	 6861.20	-18471.79399	-22504.34757	  4038.30298
2014.00	  72.03865	-117.57573	 6861.20	-20223.75063	-22452.73805	  3639.15491
2014.00	  72.03865	-105.57573	 6861.20	-21913.87429	-22216.37205	  2689.76923
2014.00	  72.03865	 -93.57573	 6861.20	-23058.37505	-21747.09063	   950.51448
2014.00	  72.03865	 -81.57573	 6861.20	-22968.55014	-21240.60222	 -1432.10271
2014.00	  72.03865	 -69.57573	 6861.20	-21286.75995	-21004.92331	 -3864.20345
2014.00	  72.03865	 -57.57573	 6861.20	-18230.53234	-21318.03011	 -5628.43250
2014.00	  72.03865	 -45.57573	99999.00	 99999.00000	 99999.00000	 99999.00000
2014.00	  72.03865	 -33.57573	 6861.20	-11089.46231	-23461.94658	 -5544.20739
2014.00	  72.03865	 -21.57573	 6861.20	 -8768.09733	-24658.11540	 -3991.09130
2014.00	  84.03646	  -9.76928	 6861.20	  4794.67645	-23513.83404	 -3079.63757
2014.00	  84.03646	   1.84363	 6861.20	  5272.89407	-24436.41411	 -1625.46700
2014.00	  84.03646	  13.45653	99999.00	 99999.00000	 99999.00000	 99999.00000
2014.00	  84.03646	  25.06943	99999.00	 99999.00000	 99999.00000	 99999.00000
2014.00	  84.03646	  36.68234	 6861.20	  2361.70078	-26807.78276	   399.34326
2014.00	  84.03646	  48.29524	 6861.20	  1248.26362	-27870.60269	  -355.00652
2014.00	  84.03646	  59.90814	 6861.20	  1075.90296	-29155.92580	 -1172.09360
2014.00	  84.03646	  71.52105	 6861.20	  1499.18375	-30504.10406	 -1520.59816
2014.00	  84.03646	  83.13395	 6861.20	  2071.24292	-31637.18174	 -1325.08226
2014.00	  84.03646	  94.74685	 6861.20	  2306.20368	-32241.78115	  -692.67831
2014.00	  84.03646	 106.35976	 6861.20	  1977.30846	-32176.38988	  -175.67580
2014.00	  84.03646	 117.97266	 6861.20	  1728.84123	-31582.21638	   -87.50288
2014.00	  84.03646	 129.58556	 6861.20	  1923.96696	-30657.93399	   217.78133
2014.00	  84.03646	 141.19846	 6861.20	  1893.23036	-29523.46444	  1122.98998
2014.00	  84.03646	 152.81137	99999.00	 99999.00000	 99999.00000	 99999.00000
2014.00	  84.03646	 164.42427	 6861.20	  -214.37278	-27221.69905	  3364.83664
2014.00	  84.03646	 176.03717	99999.00	 99999.00000	 99999.00000	 99999.00000
2014.00	  84.03646	-172.34992	 6861.20	 -3835.82240	-25554.63653	  4129.91827
2014.00	  84.03646	-160.73702	 6861.20	 -5198.12986	-24966.45256	  4066.79460
2014.00	  84.03646	-149.12412	 6861.20	 -6381.40233	-24493.87898	  4075.96223
2014.00	  84.03646	-137.51121	 6861.20	 -7637.70973	-24151.30204	  4057.91602
2014.00	  84.03646	-125.89831	 6861.20	 -8959.58601	-23924.64312	  3873.95169
2014.00	  84.03646	-114.28541	 6861.20	-10368.81816	-23706.17596	  3510.30027
2014.00	  84.03646	-102.67250	 6861.20	-11922.40768	-23329.34709	  2722.12632
2014.00	  84.03646	 -91.05960	 6861.20	-13182.31505	-22705.66889	  1123.75616
2014.00	  84.03646	 -79.44670	 6861.20	-13321.48592	-21980.71848	 -1251.20817
2014.00	  84.03646	 -67.83379	99999.00	 99999.00000	 99999.00000	 99999.00000
2014.00	  84.03646	 -56.22089	 6861.20	 -8525.18556	-21250.33502	 -5910.05406
2014.00	  84.03646	 -44.60799	99999.00	 99999.00000	 99999.00000	 99999.00000
2014.00	  84.03646	 -32.99508	 6861.20	    37.05981	-21961.02993	 -6261.68798
2014.00	  84.03646	 -21.38218	 6861.20	  3145.79607	-22654.25383	 -4795.21831
2014.00	  95.96354	  -3.96283	 6861.20	 14582.28449	-18478.80806	 -3162.44523
2014.00	  95.96354	   7.65008	99999.00	 99999.00000	 99999.00000	 99999.00000
2014.00	  95.96354	  19.26298	99999.00	 99999.00000	 99999.00000	 99999.00000
2014.00	  95.96354	  30.87588	99999.00	 99999.00000	 99999.00000	 99999.00000
2014.00	  95.96354	  42.48879	 6861.20	 13489.54170	-22764.24295	 -1371.76044
2014.00	  95.96354	  54.10169	 6861.20	 13830.61851	-24587.14772	 -2453.37903
2014.00	  95.96354	  65.71459	 6861.20	 15124.57694	-26435.30356	 -3053.17938
2014.00	  95.96354	  77.32750	 6861.20	 16695.89120	-28075.53523	 -2848.79658
2014.00	  95.96354	  88.94040	 6861.20	 17817.26607	-29295.36468	 -1836.93383
2014.00	  95.96354	 100.55330	 6861.20	 17805.44456	-29978.57354	  -518.45675
2014.00	  95.96354	 112.16621	 6861.20	 16995.89587	-30133.27180	   291.95278
2014.00	  95.96354	 123.77911	 6861.20	 16347.76972	-29835.66251	   744.28272
2014.00	  95.96354	 135.39201	 6861.20	 15795.57366	-29262.41969	  1547.50066
2014.00	  95.96354	 147.00492	 6861.20	 14743.10377	-28597.49040	  2674.16255
2014.00	  95.96354	 158.61782	 6861.20	 13068.69089	-27939.89716	  3768.46219
2014.00	  95.96354	 170.23072	 6861.20	 10928.63192	-27332.64265	  4537.93559
2014.00	  95.96354	-178.15637	 6861.20	  8708.37180	-26752.80994	  4810.53815
2014.00	  95.96354	-166.54347	 6861.20	  6798.55659	-26125.40429	  4753.95724
2014.00	  95.96354	-154.93057	 6861.20	  5175.87620	-25447.55703	  4677.48481
2014.00	  95.96354	-143.31766	 6861.20	  3613.12878	-24790.97607	  4598.27628
2014.00	  95.96354	-131.70476	 6861.20	  2085.23325	-24215.66407	  4387.96842
2014.00	  95.96354	-120.09186	 6861.20	   633.08794	-23718.41232	  4074.46673
2014.00	  95.96354	-108.47895	 6861.20	  -915.71521	-23248.09873	  3642.52311
2014.00	  95.96354	 -96.86605	 6861.20	 -2645.09566	-22676.23441	  2712.01454
2014.00	  95.96354	 -85.25315	 6861.20	 -3948.47816	-21888.56882	   850.30155
2014.00	  95.96354	 -73.64024	 6861.20	 -3860.82824	-20956.75070	 -1792.22334
2014.00	  95.96354	 -62.02734	 6861.20	 -1830.53258	-20029.26198	 -4434.38649
2014.00	  95.96354	 -50.41444	99999.00	 99999.00000	 99999.00000	 99999.00000
2014.00	  95.96354	 -38.80154	 6861.20	  6171.08433	-18392.23534	 -6607.84710
2014.00	  95.96354	 -27.18863	 6861.20	 10005.51645	-17945.27708	 -5854.95282
2014.00	  95.96354	 -15.57573	 6861.20	 12817.18438	-17993.04797	 -4565.97736
2014.00	 107.96135	  -3.38218	 6861.20	 18694.55220	-12603.51596	 -3560.51023
2014.00	 107.96135	   8.61782	99999.00	 99999.00000	 99999.00000	 99999.00000
2014.00	 107.96135	  20.61782	99999.00	 99999.00000	 99999.00000	 99999.00000
2014.00	 107.96135	  32.61782	 6861.20	 19773.61750	-15080.48786	 -2492.45856
2014.00	 107.96135	  44.61782	 6861.20	 20692.77273	-17030.13594	 -3758.12266
2014.00	 107.96135	  56.61782	 6861.20	 22988.76745	-19082.35411	 -4905.68548
2014.00	 107.96135	  68.61782	 6861.20	 26037.63615	-20978.66296	 -5138.25802
2014.00	 107.96135	  80.61782	 6861.20	 28876.33850	-22606.88241	 -4294.86735
2014.00	 107.96135	  92.61782	 6861.20	 30632.19382	-23982.84870	 -2582.26176
2014.00	 107.96135	 104.61782	 6861.20	 30828.41281	-25111.45508	  -799.80766
2014.00	 107.96135	 116.61782	 6861.20	 30178.20717	-25819.58043	   386.75215
2014.00	 107.96135	 128.61782	 6861.20	 29441.46862	-26019.98405	  1366.90750
2014.00	 107.96135	 140.61782	 6861.20	 28402.42557	-25921.55441	  2568.88097
2014.00	 107.96135	 152.61782	99999.00	 99999.00000	 99999.00000	 99999.00000
2014.00	 107.96135	 164.61782	 6861.20	 24557.99603	-25524.26970	  4859.52601
2014.00	 107.96135	 176.61782	99999.00	 99999.00000	 99999.00000	 99999.00000
2014.00	 107.96135	-171.38218	 6861.20	 19533.81350	-24888.46392	  5614.63692
2014.00	 107.96135	-159.38218	 6861.20	 17225.36379	-24369.55237	  5618.96590
2014.00	 107.96135	-147.38218	 6861.20	 14988.37475	-23780.28266	  5548.92674
2014.00	 107.96135	-135.38218	99999.00	 99999.00000	 99999.00000	 99999.00000
2014.00	 107.96135	-123.38218	 6861.20	 10842.67226	-22581.58071	  4966.13197
2014.00	 107.96135	-111.38218	 6861.20	  8934.45569	-21957.00314	  4547.51494
2014.00	 107.96135	 -99.38218	 6861.20	  6867.29791	-21293.27464	  3833.97652
2014.00	 107.96135	 -87.38218	 6861.20	  4885.68530	-20475.30619	  2289.41143
2014.00	 107.96135	 -75.38218	 6861.20	  3965.33679	-19384.31103	  -249.14296
2014.00	 107.96135	 -63.38218	99999.00	 99999.00000	 99999.00000	 99999.00000
2014.00	 107.96135	 -51.38218	 6861.20	  7669.49781	-16466.11699	 -5036.94867
2014.00	 107.96135	 -39.38218	 6861.20	 11054.09821	-14934.84368	 -5747.32156
2014.00	 107.96135	 -27.38218	 6861.20	 14199.20600	-13680.69407	 -5443.16644
2014.00	 107.96135	 -15.38218	 6861.20	 16790.84497	-12896.97236	 -4629.62531
2014.00	 119.95822	  -1.38218	 6861.20	 19201.26984	 -9168.67859	 -3454.51685
2014.00	 119.95822	  11.95115	99999.00	 99999.00000	 99999.00000	 99999.00000
2014.00	 119.95822	  25.28449	 6861.20	 20529.33640	-10163.95679	 -3830.45875
2014.00	 119.95822	  38.61782	 6861.20	 22414.81117	-11666.62656	 -5415.66688
2014.00	 119.95822	  51.95115	 6861.20	 26072.30212	-13217.34432	 -6999.66989
2014.00	 119.95822	  65.28449	 6861.20	 30863.15524	-14586.89640	 -7486.64942
2014.00	 119.95822	  78.61782	 6861.20	 35466.82611	-15860.94504	 -6547.46761
2014.00	 119.95822	  91.95115	 6861.20	 38838.86411	-17206.97860	 -4484.94192
2014.00	 119.95822	 105.28449	 6861.20	 40407.07016	-18646.36726	 -2101.80394
2014.00	 119.95822	 118.61782	 6861.20	 40602.06821	-19806.71279	  -107.61578
2014.00	 119.95822	 131.95115	 6861.20	 40005.07180	-20456.98249	  1640.05939
2014.00	 119.95822	 145.28449	 6861.20	 38645.15843	-20790.77981	  3335.74067
2014.00	 119.95822	 158.61782	 6861.20	 36502.10286	-21024.52638	  4828.18870
2014.00	 119.95822	 171.95115	 6861.20	 33740.91616	-21211.62322	  5874.58752
2014.00	 119.95822	-174.71551	 6861.20	 30740.69891	-21289.12761	  6396.42613
2014.00	 119.95822	-161.38218	 6861.20	 27771.94883	-21213.99842	  6581.52450
2014.00	 119.95822	-148.04885	 6861.20	 24855.55852	-21039.31187	  6571.91568
2014.00	 119.95822	-134.71551	 6861.20	 22041.00266	-20763.23605	  6364.02073
2014.00	 119.95822	-121.38218	 6861.20	 19309.15272	-20305.05143	  6053.62399
2014.00	 119.95822	-108.04885	 6861.20	 16531.59608	-19676.18818	  5590.73874
2014.00	 119.95822	 -94.71551	 6861.20	 13570.18219	-18944.14600	  4578.79718
2014.00	 119.95822	 -81.38218	 6861.20	 11042.48046	-18024.98598	  2455.89249
2014.00	 119.95822	 -68.04885	 6861.20	 10142.35462	-16675.52172	  -514.10140
2014.00	 119.95822	 -54.71551	 6861.20	 11329.14831	-14883.34965	 -3114.36809
2014.00	 119.95822	 -41.38218	 6861.20	 13674.32648	-12966.91727	 -4419.39108
2014.00	 119.95822	 -28.04885	 6861.20	 16031.12655	-11253.40999	 -4559.99866
2014.00	 119.95822	 -14.71551	 6861.20	 17926.09054	 -9931.77047	 -4106.14237
2014.00	 131.82612	   1.22652	 6861.20	 19112.14130	 -8805.57816	 -3631.71471
2014.00	 131.82612	  16.87869	99999.00	 99999.00000	 99999.00000	 99999.00000
2014.00	 131.82612	  32.53086	 6861.20	 22347.49033	 -9681.03535	 -6655.09491
2014.00	 131.82612	  48.18304	 6861.20	 26917.21685	-10161.11822	 -8763.23032
2014.00	 131.82612	  63.83521	 6861.20	 33094.51406	-10309.26956	 -9580.83496
2014.00	 131.82612	  79.48738	 6861.20	 39311.38872	-10542.77471	 -8520.36503
2014.00	 131.82612	  95.13956	 6861.20	 44184.46744	-11234.68239	 -5964.02051
